# Temperature [K]                Resistivity [micro Ohm cm] for different Phonon smearing (meV)        
#        0.1000000   0.1500000   0.2000000   0.2500000   0.3000000   0.3500000   0.4000000   0.4500000   0.5000000   0.5500000
      10   0.1327635   0.1289246   0.1294605   0.1302492   0.1312378   0.1324443   0.1338939   0.1356242   0.1376919   0.1401738
      20   0.3590113   0.3495269   0.3504790   0.3519269   0.3537467   0.3559744   0.3586612   0.3618829   0.3657536   0.3704273
      30   0.6342098   0.6206981   0.6221370   0.6243102   0.6270416   0.6303851   0.6344178   0.6392532   0.6450624   0.6520766
      40   1.0129162   0.9974196   0.9993803   1.0022923   1.0059516   1.0104302   1.0158308   1.0223050   1.0300807   1.0394663
      50   1.5423300   1.5261425   1.5286454   1.5323013   1.5368948   1.5425160   1.5492933   1.5574159   1.5671691   1.5789381
      60   2.2444767   2.2281166   2.2311678   2.2355668   2.2410935   2.2478561   2.2560086   2.2657782   2.2775070   2.2916576
      70   3.1105824   3.0941281   3.0977256   3.1028636   3.1093184   3.1172163   3.1267370   3.1381456   3.1518412   3.1683635
      80   4.1151332   4.0984803   4.1026195   4.1084918   4.1158691   4.1248958   4.1357773   4.1488163   4.1644691   4.1833525
      90   5.2293612   5.2123547   5.2170309   5.2236342   5.2319298   5.2420802   5.2543165   5.2689794   5.2865820   5.3078184
     100   6.4278710   6.4103602   6.4155698   6.4229017   6.4321128   6.4433836   6.4569710   6.4732534   6.4928012   6.5163852
     110   7.6904244   7.6722801   7.6780205   7.6860797   7.6962046   7.7085941   7.7235304   7.7414299   7.7629200   7.7888486
     120   9.0015675   8.9826841   8.9889532   8.9977391   9.0087772   9.0222843   9.0385684   9.0580838   9.0815149   9.1097866
     130  10.3496401  10.3299323  10.3367290  10.3462413  10.3581922  10.3728165  10.3904480  10.4115789  10.4369504  10.4675647
     140  11.7258058  11.7052055  11.7125286  11.7227674  11.7356310  11.7513726  11.7703515  11.7930977  11.8204095  11.8533663
     150  13.1232896  13.1017419  13.1095909  13.1205561  13.1343326  13.1511915  13.1715180  13.1958797  13.2251321  13.2604316
     160  14.5368267  14.5142872  14.5226616  14.5343534  14.5490430  14.5670195  14.5886937  14.6146713  14.6458645  14.6835071
     170  15.9622772  15.9387100  15.9476094  15.9600281  15.9756309  15.9947252  16.0177475  16.0453412  16.0784757  16.1184617
     180  17.3963576  17.3717333  17.3811575  17.3943032  17.4108195  17.4310318  17.4554024  17.4846126  17.5196887  17.5620185
     190  18.8364500  18.8107444  18.8206933  18.8345660  18.8519960  18.8733267  18.8990459  18.9298729  18.9668909  19.0115650
     200  20.2804630  20.2536564  20.2641297  20.2787297  20.2970736  20.3195228  20.3465909  20.3790349  20.4179953  20.4650140
     210  21.7267276  21.6988034  21.7098011  21.7251286  21.7443865  21.7679545  21.7963718  21.8304331  21.8713361  21.9206997
     220  23.1739162  23.1448608  23.1563827  23.1724378  23.1926100  23.2172970  23.2470636  23.2827425  23.3255884  23.3772973
     230  24.6209790  24.5907808  24.6028270  24.6196098  24.6406963  24.6665024  24.6976186  24.7349154  24.7797044  24.8337589
     240  26.0670922  26.0357414  26.0483118  26.0658224  26.0878235  26.1147489  26.1472148  26.1861297  26.2328621  26.2892624
     250  27.5116163  27.4791048  27.4921993  27.5104379  27.5333536  27.5613984  27.5952143  27.6357474  27.6844235  27.7431698
     260  28.9540621  28.9203827  28.9340014  28.9529680  28.9767985  29.0059629  29.0411288  29.0832804  29.1339003  29.1949929
     270  30.3940621  30.3592089  30.3733518  30.3930464  30.4177918  30.4480759  30.4845921  30.5283623  30.5809262  30.6443653
     280  31.8313479  31.7953156  31.8099826  31.8304054  31.8560657  31.8874697  31.9253362  31.9707252  32.0252332  32.0910190
     290  33.2657305  33.2285146  33.2437057  33.2648568  33.2914322  33.3239560  33.3631731  33.4101809  33.4666332  33.5347658
     300  34.6970851  34.6586817  34.6743970  34.6962764  34.7237668  34.7574107  34.7979783  34.8466051  34.9050019  34.9754815
     310  36.1253383  36.0857438  36.1019832  36.1245910  36.1529967  36.1877606  36.2296789  36.2799248  36.3402662  36.4130929
     320  37.5504572  37.5096685  37.5264321  37.5497683  37.5790892  37.6149734  37.6582424  37.7101075  37.7723936  37.8475675
     330  38.9724410  38.9304554  38.9477432  38.9718078  39.0020441  39.0390485  39.0836684  39.1371528  39.2013836  39.2789049
     340  40.3913142  40.3481292  40.3659412  40.3907343  40.4218859  40.4600107  40.5059815  40.5610853  40.6272610  40.7071297
     350  41.8071205  41.7627340  41.7810700  41.8065918  41.8386588  41.8779039  41.9252257  41.9819489  42.0500696  42.1322859
     360  43.2199184  43.1743284  43.1931886  43.2194389  43.2524214  43.2927869  43.3414597  43.3998025  43.4698682  43.5544321
     370  44.6297775  44.5829822  44.6023666  44.6293455  44.6632435  44.7047295  44.7547534  44.8147158  44.8867265  44.9736382
     380  46.0367754  45.9887731  46.0086817  46.0363892  46.0712028  46.1138092  46.1651843  46.2267663  46.3007223  46.3899817
     390  47.4409950  47.3917843  47.4122171  47.4406533  47.4763825  47.5201095  47.5728358  47.6360375  47.7119386  47.8035459
     400  48.8425233  48.7921028  48.8130597  48.8422247  48.8788694  48.9237170  48.9777945  49.0426160  49.1204624  49.2144175
     410  50.2414488  50.1898173  50.2112984  50.2411921  50.2787525  50.3247207  50.3801495  50.4465907  50.5263824  50.6226855
     420  51.6378613  51.5850176  51.6070230  51.6376454  51.6761214  51.7232102  51.7799903  51.8480514  51.9297885  52.0284396
     430  53.0318502  52.9777933  53.0003228  53.0316740  53.0710657  53.1192752  53.1774066  53.2470876  53.3307701  53.4317692
     440  54.4235041  54.3682330  54.3912867  54.4233667  54.4636741  54.5130043  54.5724871  54.6437879  54.7294158  54.8327630
     450  55.8129102  55.7564239  55.7800018  55.8128106  55.8540337  55.9044846  55.9653188  56.0382396  56.1258130  56.2315083
     460  57.2001537  57.1424514  57.1665535  57.2000911  57.2422299  57.2938016  57.3559872  57.4305279  57.5200468  57.6280903
     470  58.5853176  58.5263986  58.5510248  58.5852913  58.6283458  58.6810383  58.7445753  58.8207360  58.9122004  59.0225921
     480  59.9684824  59.9083459  59.9334964  59.9684917  60.0124620  60.0662752  60.1311638  60.2089444  60.3023544  60.4150942
     490  61.3497263  61.2883716  61.3140463  61.3497704  61.3946565  61.4495905  61.5158305  61.5952312  61.6905868  61.8056749
     500  62.7291245  62.6665509  62.6927498  62.7292027  62.7750047  62.8310595  62.8986510  62.9796716  63.0769728  63.1944092
     510  64.1067493  64.0429563  64.0696794  64.1068612  64.1535790  64.2107546  64.2796976  64.3623383  64.4615851  64.5813698
     520  65.4826708  65.4176577  65.4449050  65.4828157  65.5304492  65.5887457  65.6590402  65.7433010  65.8444935  65.9666264
     530  66.8569557  66.7907220  66.8184935  66.8571331  66.9056825  66.9650998  67.0367458  67.1226267  67.2257648  67.3502461
     540  68.2296683  68.1622136  68.1905092  68.2298777  68.2793430  68.3398811  68.4128787  68.5003797  68.6054635  68.7322931
     550  69.6008703  69.5321940  69.5610139  69.6011113  69.6514923  69.7131514  69.7875005  69.8766217  69.9836511  70.1128291
     560  70.9706207  70.9007223  70.9300664  70.9708927  71.0221896  71.0849695  71.1606703  71.2514115  71.3603867  71.4919130
     570  72.3389759  72.2678550  72.2977233  72.3392785  72.3914913  72.4553921  72.5324444  72.6248058  72.7357267  72.8696014
     580  73.7059899  73.6336461  73.6640386  73.7063227  73.7594514  73.8244731  73.9028770  73.9968585  74.1097251  74.2459482
     590  75.0717144  74.9981474  75.0290640  75.0720771  75.1261216  75.1922642  75.2720197  75.3676214  75.4824337  75.6210053
     600  76.4361987  76.3614081  76.3928490  76.4365909  76.4915513  76.5588148  76.6399220  76.7371438  76.8539019  76.9948219
     610  77.7994902  77.7234756  77.7554406  77.7999116  77.8557878  77.9241722  78.0066310  78.1054730  78.2241769  78.3674453
     620  79.1616339  79.0843949  79.1168842  79.1620841  79.2188762  79.2883815  79.3721919  79.4726541  79.5933038  79.7389206
     630  80.5226730  80.4442093  80.4772228  80.5231516  80.5808596  80.6514859  80.7366479  80.8387303  80.9613257  81.1092910
     640  81.8826486  81.8029600  81.8364976  81.8831554  81.9417793  82.0135265  82.1000402  82.2037428  82.3282839  82.4785976
     650  83.2416001  83.1606862  83.1947481  83.2421348  83.3016746  83.3745428  83.4624081  83.5677309  83.6942178  83.8468800
     660  84.5995653  84.5174258  84.5520119  84.6001275  84.6605833  84.7345723  84.8237893  84.9307323  85.0591650  85.2141757
     670  85.9565799  85.8732147  85.9083249  85.9571695  86.0185412  86.0936512  86.1842198  86.2927830  86.4231616  86.5805207
     680  87.3126786  87.2280872  87.2637216  87.3132952  87.3755828  87.4518137  87.5437340  87.6539174  87.7862418  87.9459494
     690  88.6678940  88.5820764  88.6182350  88.6685375  88.7317410  88.8090929  88.9023648  89.0141685  89.1484386  89.3104948
     700  90.0222577  89.9352135  89.9718963  90.0229278  90.0870472  90.1655200  90.2601436  90.3735675  90.5097835  90.6741882
     710  91.3757998  91.2875288  91.3247358  91.3764962  91.4415315  91.5211253  91.6171006  91.7321447  91.8703065  92.0370597
     720  92.7285489  92.6390509  92.6767821  92.7292715  92.7952228  92.8759375  92.9732645  93.0899288  93.2300365  93.3991381
     730  94.0805327  93.9898075  94.0280629  94.0812812  94.1481484  94.2299842  94.3286628  94.4469474  94.5890009  94.7604510
     740  95.4317775  95.3398249  95.3786044  95.4325518  95.5003349  95.5832916  95.6833219  95.8032267  95.9472260  96.1210247
     750  96.7823084  96.6891283  96.7284320  96.7831083  96.8518074  96.9358850  97.0372670  97.1587921  97.3047372  97.4808844
     760  98.1321498  98.0377418  98.0775697  98.1329750  98.2025900  98.2877886  98.3905223  98.5136677  98.6615586  98.8400544
     770  99.4813246  99.3856887  99.4260408  99.4821750  99.5527060  99.6390256  99.7431109  99.8678765 100.0177134 100.1985576
     780 100.8298551 100.7329910 100.7738673 100.8307305 100.9021774 100.9896180 101.0950551 101.2214409 101.3732236 101.5564164
     790 102.1777625 102.0796701 102.1210706 102.1786628 102.2510256 102.3395872 102.4463759 102.5743820 102.7281106 102.9136519
     800 103.5250672 103.4257463 103.4676710 103.5259922 103.5992709 103.6889535 103.7970939 103.9267203 104.0823946 104.2702845
     810 104.8717886 104.7712392 104.8136880 104.8727382 104.9469329 105.0377364 105.1472285 105.2784752 105.4360954 105.6263338
     820 106.2179456 106.1161674 106.1591404 106.2189195 106.2940302 106.3859547 106.4967985 106.6296654 106.7892315 106.9818185
     830 107.5635561 107.4605490 107.5040461 107.5645543 107.6405809 107.7336263 107.8458219 107.9803091 108.1418210 108.3367565
     840 108.9086373 108.8044011 108.8484225 108.9096596 108.9866021 109.0807686 109.1943159 109.3304233 109.4938811 109.6911652
     850 110.2532058 110.1477405 110.1922860 110.2542521 110.3321106 110.4273981 110.5422970 110.6800247 110.8454284 111.0450610
     860 111.5972776 111.4905830 111.5356527 111.5983478 111.6771222 111.7735306 111.8897813 112.0291293 112.1964788 112.3984600
     870 112.9408678 112.8329438 112.8785376 112.9419617 113.0216521 113.1191815 113.2367839 113.3777522 113.5470476 113.7513773
     880 114.2839912 114.1748376 114.2209557 114.2851087 114.3657151 114.4643655 114.5833196 114.7259081 114.8971494 115.1038277
     890 115.6266619 115.5162786 115.5629209 115.6278029 115.7093252 115.8090966 115.9294024 116.0736112 116.2467984 116.4558252
     900 116.9688935 116.8572804 116.9044468 116.9700579 117.0524961 117.1533885 117.2750460 117.4208751 117.5960081 117.8073835
     910 118.3106989 118.1978560 118.2455465 118.3118866 118.3952407 118.4972542 118.6202634 118.7677128 118.9447917 119.1585156
     920 119.6520908 119.5380179 119.5862326 119.6533016 119.7375718 119.8407062 119.9650671 120.1141368 120.2931615 120.5092341
     930 120.9930813 120.8777782 120.9265171 120.9943151 121.0795012 121.1837566 121.3094693 121.4601592 121.6411299 121.8595509
     940 122.3336819 122.2171486 122.2664117 122.3349387 122.4210407 122.5264171 122.6534815 122.8057917 122.9887083 123.2094779
     950 123.6739038 123.5561403 123.6059275 123.6751835 123.7622015 123.8686989 123.9971150 124.1510455 124.3359079 124.5590261
     960 125.0137579 124.8947640 124.9450754 125.0150604 125.1029943 125.2106128 125.3403805 125.4959314 125.6827396 125.9082064
     970 126.3532546 126.2330302 126.2838658 126.3545797 126.4434296 126.5521690 126.6832885 126.8404596 127.0292138 127.2570292
     980 127.6924038 127.5709488 127.6223086 127.6937515 127.7835174 127.8933778 128.0258490 128.1846404 128.3753405 128.6055044
     990 129.0312152 128.9085296 128.9604135 129.0325855 129.1232673 129.2342487 129.3680716 129.5284833 129.7211292 129.9536418
    1000 130.3696981 130.2457817 130.2981898 130.3710908 130.4626886 130.5747910 130.7099657 130.8719976 131.0665895 131.3014505
